Wavelength (nm)	L02 abs e
220.00	18269
220.25	18384
220.50	17606
220.75	17020
221.00	17617
221.25	16930
221.50	16906
221.75	15769
222.00	15506
222.25	14965
222.50	15225
222.75	15570
223.00	14928
223.25	15155
223.50	14265
223.75	14187
224.00	14187
224.25	13431
224.50	13859
224.75	13736
225.00	12620
225.25	12657
225.50	13143
225.75	12621
226.00	12433
226.25	12881
226.50	12666
226.75	12331
227.00	12269
227.25	12170
227.50	11815
227.75	11702
228.00	12055
228.25	12343
228.50	11898
228.75	12005
229.00	12162
229.25	11519
229.50	11101
229.75	11569
230.00	11686
230.25	11612
230.50	11880
230.75	11635
231.00	11344
231.25	11255
231.50	11208
231.75	11926
232.00	11656
232.25	11555
232.50	10928
232.75	11489
233.00	10638
233.25	11505
233.50	11356
233.75	11729
234.00	11123
234.25	11207
234.50	11444
234.75	11246
235.00	11096
235.25	11225
235.50	11167
235.75	10772
236.00	10490
236.25	10764
236.50	10674
236.75	11551
237.00	10838
237.25	11388
237.50	11467
237.75	11092
238.00	11677
238.25	10861
238.50	10689
238.75	11145
239.00	10961
239.25	11155
239.50	11298
239.75	10305
240.00	10752
240.25	11219
240.50	10875
240.75	10993
241.00	11054
241.25	11052
241.50	11476
241.75	10588
242.00	10752
242.25	10765
242.50	11074
242.75	11308
243.00	10934
243.25	11008
243.50	10783
243.75	11006
244.00	10999
244.25	11148
244.50	10597
244.75	11135
245.00	10491
245.25	11139
245.50	10892
245.75	10932
246.00	10482
246.25	10908
246.50	11206
246.75	10957
247.00	10877
247.25	10522
247.50	10956
247.75	10931
248.00	10931
248.25	11186
248.50	10340
248.75	10232
249.00	10872
249.25	10824
249.50	10545
249.75	10864
250.00	10941
250.25	10283
250.50	10838
250.75	10896
251.00	10679
251.25	10693
251.50	10266
251.75	10735
252.00	10414
252.25	10204
252.50	10365
252.75	9999.5
253.00	10487
253.25	10020
253.50	10400
253.75	10294
254.00	10069
254.25	10288
254.50	9953.8
254.75	10285
255.00	10170
255.25	10737
255.50	10244
255.75	10401
256.00	10346
256.25	10241
256.50	9540.9
256.75	9727.1
257.00	10184
257.25	9910.1
257.50	9806.1
257.75	9931.9
258.00	9220.7
258.25	9135.4
258.50	9430.7
258.75	9454.6
259.00	9060.5
259.25	9191.5
259.50	8762.1
259.75	9501.4
260.00	9343.4
260.25	9049.1
260.50	9395.4
260.75	9333.0
261.00	8663.3
261.25	8371.1
261.50	8737.1
261.75	9079.2
262.00	8817.2
262.25	8494.8
262.50	8204.7
262.75	8748.5
263.00	8182.9
263.25	8168.3
263.50	8522.9
263.75	8262.9
264.00	8743.3
264.25	8588.4
264.50	8630.0
264.75	8143.3
265.00	8015.4
265.25	8453.2
265.50	8278.5
265.75	8129.8
266.00	8327.4
266.25	7509.0
266.50	7714.9
266.75	7893.8
267.00	8267.1
267.25	8178.7
267.50	7954.1
267.75	7787.7
268.00	8019.6
268.25	8212.0
268.50	8228.6
268.75	7893.8
269.00	8526.0
269.25	8156.9
269.50	8160.0
269.75	8027.9
270.00	8649.8
270.25	8109.0
270.50	8157.9
270.75	8061.2
271.00	8347.2
271.25	8184.9
271.50	7917.7
271.75	8608.2
272.00	8477.1
272.25	8415.8
272.50	8371.1
272.75	8342.0
273.00	7987.4
273.25	7856.3
273.50	8659.1
273.75	9001.2
274.00	8812.0
274.25	8553.1
274.50	8862.9
274.75	8648.7
275.00	8527.1
275.25	8449.1
275.50	9042.8
275.75	8554.1
276.00	8458.4
276.25	9197.8
276.50	8832.8
276.75	9214.4
277.00	9566.9
277.25	9794.7
277.50	9459.8
277.75	9409.9
278.00	9185.3
278.25	9844.6
278.50	8688.2
278.75	9290.3
279.00	9315.3
279.25	10006
279.50	9343.4
279.75	9311.1
280.00	9169.7
280.25	9610.6
280.50	9644.9
280.75	10008
281.00	9835.2
281.25	9625.2
281.50	9886.2
281.75	9889.3
282.00	10188
282.25	9904.9
282.50	10094
282.75	9442.2
283.00	10225
283.25	10295
283.50	10130
283.75	10005
284.00	10996
284.25	9986.0
284.50	10340
284.75	10824
285.00	10357
285.25	10313
285.50	10631
285.75	10093
286.00	10433
286.25	10334
286.50	10644
286.75	10742
287.00	10385
287.25	11015
287.50	10567
287.75	10479
288.00	10817
288.25	11069
288.50	11291
288.75	10813
289.00	10710
289.25	10865
289.50	11179
289.75	10619
290.00	11533
290.25	10783
290.50	11236
290.75	11539
291.00	11109
291.25	11170
291.50	10419
291.75	11117
292.00	11710
292.25	11971
292.50	11581
292.75	12036
293.00	11627
293.25	11734
293.50	11731
293.75	11854
294.00	12190
294.25	12037
294.50	11623
294.75	12030
295.00	12191
295.25	11847
295.50	11415
295.75	12069
296.00	12209
296.25	12468
296.50	11938
296.75	12266
297.00	12956
297.25	12134
297.50	12797
297.75	12695
298.00	11997
298.25	12745
298.50	12545
298.75	12603
299.00	12594
299.25	12800
299.50	12656
299.75	13249
300.00	12909
300.25	12811
300.50	12952
300.75	12983
301.00	13102
301.25	13610
301.50	13043
301.75	13804
302.00	13304
302.25	13267
302.50	13493
302.75	13653
303.00	13928
303.25	13471
303.50	13134
303.75	13543
304.00	14341
304.25	14009
304.50	14007
304.75	13741
305.00	14172
305.25	14013
305.50	14507
305.75	14381
306.00	13804
306.25	14035
306.50	14240
306.75	14305
307.00	14851
307.25	14365
307.50	14481
307.75	14714
308.00	14812
308.25	14493
308.50	14749
308.75	15272
309.00	15386
309.25	15481
309.50	14700
309.75	15624
310.00	14968
310.25	15305
310.50	16635
310.75	15366
311.00	16377
311.25	15039
311.50	15760
311.75	16401
312.00	16405
312.25	17246
312.50	16192
312.75	16855
313.00	15829
313.25	16891
313.50	16253
313.75	16524
314.00	16080
314.25	16845
314.50	16163
314.75	16787
315.00	16864
315.25	16311
315.50	17081
315.75	16562
316.00	16554
316.25	16880
316.50	16551
316.75	16842
317.00	17549
317.25	17735
317.50	16730
317.75	16923
318.00	17232
318.25	16755
318.50	16736
318.75	15310
319.00	16012
319.25	15889
319.50	14843
319.75	15461
320.00	15763
320.25	15766
320.50	14376
320.75	14532
321.00	14636
321.25	15040
321.50	14522
321.75	13605
322.00	14208
322.25	13636
322.50	13661
322.75	12613
323.00	12929
323.25	12466
323.50	11377
323.75	12172
324.00	12610
324.25	11577
324.50	10768
324.75	10661
325.00	10252
325.25	10248
325.50	10097
325.75	9837.3
326.00	9913.2
326.25	9618.9
326.50	8823.4
326.75	8786.0
327.00	8823.4
327.25	8570.7
327.50	8071.6
327.75	8220.3
328.00	7269.8
328.25	7008.8
328.50	7268.8
328.75	6723.9
329.00	6859.1
329.25	7438.3
329.50	7070.2
329.75	7170.0
330.00	6783.2
330.25	5954.4
330.50	5884.7
330.75	5938.8
331.00	6356.8
331.25	5775.5
331.50	6283.0
331.75	5130.8
332.00	5090.2
332.25	4973.8
332.50	5173.4
332.75	5367.9
333.00	5725.6
333.25	5139.1
333.50	4821.9
333.75	4755.4
334.00	4390.4
334.25	4576.5
334.50	4309.3
334.75	5709.0
335.00	4542.2
335.25	4687.8
335.50	4021.2
335.75	3938.0
336.00	3567.8
336.25	4366.5
336.50	4110.7
336.75	3945.3
337.00	4103.4
337.25	3866.3
337.50	4022.3
337.75	4011.9
338.00	3266.3
338.25	4247.9
338.50	3725.9
338.75	4073.2
339.00	3963.0
339.25	3778.9
339.50	3262.1
339.75	3637.5
340.00	3498.2
340.25	3476.3
340.50	3307.9
340.75	3800.8
341.00	3389.0
341.25	2979.3
341.50	3165.4
341.75	3393.1
342.00	3189.3
342.25	3728.0
342.50	3303.7
342.75	3455.5
343.00	3037.5
343.25	3493.0
343.50	3402.5
343.75	2921.0
344.00	3509.6
344.25	3346.3
344.50	3140.5
344.75	3339.1
345.00	3378.6
345.25	2672.5
345.50	2955.4
345.75	3108.2
346.00	2473.9
346.25	2962.6
346.50	2998.0
346.75	3108.2
347.00	3422.3
347.25	2978.2
347.50	3130.1
347.75	2955.4
348.00	2518.6
348.25	3410.8
348.50	3014.6
348.75	3330.8
349.00	3185.2
349.25	2923.1
349.50	3106.1
349.75	3353.6
350.00	3368.2
350.25	3025.0
350.50	2701.6
350.75	3083.3
351.00	2878.4
351.25	2914.8
351.50	3249.6
351.75	3496.1
352.00	3401.5
352.25	2929.4
352.50	2981.3
352.75	2740.1
353.00	2980.3
353.25	3171.6
353.50	3410.8
353.75	2784.8
354.00	2830.6
354.25	3110.3
354.50	3207.0
354.75	3190.4
355.00	3412.9
355.25	3293.3
355.50	2694.3
355.75	3020.9
356.00	3365.1
356.25	2833.7
356.50	3372.3
356.75	3630.2
357.00	3245.5
357.25	3244.4
357.50	3303.7
357.75	3246.5
358.00	3538.7
358.25	3391.1
358.50	3162.3
358.75	3389.0
359.00	3376.5
359.25	3230.9
359.50	3494.0
359.75	3679.1
360.00	3328.7
360.25	2998.0
360.50	3418.1
360.75	3316.2
361.00	3113.4
361.25	2808.7
361.50	2986.5
361.75	3384.8
362.00	3425.4
362.25	3807.0
362.50	3425.4
362.75	3619.8
363.00	3773.7
363.25	3842.4
363.50	3566.8
363.75	3597.0
364.00	4054.5
364.25	3786.2
364.50	3693.7
364.75	3971.3
365.00	3922.4
365.25	3729.0
365.50	4145.0
365.75	3904.8
366.00	4174.1
366.25	4046.2
366.50	4306.2
366.75	4181.4
367.00	4116.9
367.25	4426.8
367.50	3849.7
367.75	4142.9
368.00	3870.5
368.25	4178.3
368.50	4198.0
368.75	4210.5
369.00	4110.7
369.25	4245.8
369.50	4359.2
369.75	4584.9
370.00	4223.0
370.25	4154.3
370.50	4389.4
370.75	4093.0
371.00	4271.8
371.25	4820.9
371.50	4657.6
371.75	4418.5
372.00	4267.7
372.25	4767.9
372.50	4574.5
372.75	5071.5
373.00	4594.2
373.25	4502.7
373.50	5313.8
373.75	4944.7
374.00	4521.4
374.25	5015.4
374.50	5131.8
374.75	5009.1
375.00	5173.4
375.25	4811.5
375.50	4724.2
375.75	4884.3
376.00	5362.7
376.25	5085.0
376.50	5256.6
376.75	5002.9
377.00	5107.9
377.25	5490.6
377.50	5071.5
377.75	4905.1
378.00	5617.5
378.25	5276.4
378.50	5273.3
378.75	5514.5
379.00	5527.0
379.25	5432.4
379.50	5973.1
379.75	5628.9
380.00	5718.3
380.25	5911.7
380.50	5806.7
380.75	5773.4
381.00	6107.2
381.25	6306.9
381.50	5878.5
381.75	5965.8
382.00	5958.5
382.25	6004.3
382.50	6053.2
382.75	6318.3
383.00	6419.2
383.25	6633.4
383.50	6325.6
383.75	6702.1
384.00	6894.4
384.25	6746.8
384.50	7040.0
384.75	6896.5
385.00	6744.7
385.25	7082.7
385.50	7066.0
385.75	7387.3
386.00	7087.9
386.25	7257.4
386.50	6954.7
386.75	7301.0
387.00	7171.0
387.25	7573.5
387.50	7710.7
387.75	7497.6
388.00	7360.3
388.25	7974.9
388.50	7540.2
388.75	7653.6
389.00	7921.8
389.25	7999.8
389.50	7996.7
389.75	7973.8
390.00	8130.9
390.25	8532.3
390.50	8112.1
390.75	8226.5
391.00	8327.4
391.25	8429.3
391.50	8328.4
391.75	8514.6
392.00	8594.6
392.25	8459.5
392.50	8641.4
392.75	9074.0
393.00	8812.0
393.25	9068.8
393.50	8796.4
393.75	9084.4
394.00	9259.1
394.25	9318.4
394.50	9578.4
394.75	9457.8
395.00	9251.9
395.25	9385.0
395.50	9817.6
395.75	9857.1
396.00	10035
396.25	10160
396.50	10034
396.75	10322
397.00	10380
397.25	10795
397.50	10599
397.75	10545
398.00	10664
398.25	10559
398.50	10797
398.75	11085
399.00	11157
399.25	10862
399.50	10918
399.75	11017
400.00	11011
400.25	11400
400.50	11203
400.75	11749
401.00	11191
401.25	11516
401.50	11894
401.75	11768
402.00	11753
402.25	11569
402.50	11815
402.75	11972
403.00	11820
403.25	12079
403.50	12445
403.75	12491
404.00	12389
404.25	12339
404.50	12603
404.75	12447
405.00	12781
405.25	12594
405.50	12932
405.75	12931
406.00	13097
406.25	12879
406.50	13417
406.75	13296
407.00	13334
407.25	13361
407.50	13508
407.75	13240
408.00	13612
408.25	13451
408.50	13783
408.75	14027
409.00	13837
409.25	13691
409.50	13639
409.75	14340
410.00	14338
410.25	14058
410.50	14098
410.75	14548
411.00	14389
411.25	14505
411.50	14417
411.75	14526
412.00	14547
412.25	14712
412.50	14605
412.75	14828
413.00	15084
413.25	14854
413.50	14910
413.75	15270
414.00	15312
414.25	15437
414.50	15529
414.75	15444
415.00	15030
415.25	15142
415.50	15471
415.75	15600
416.00	15603
416.25	15772
416.50	15661
416.75	15484
417.00	15970
417.25	15892
417.50	15759
417.75	15848
418.00	15850
418.25	16328
418.50	16174
418.75	16401
419.00	16392
419.25	16291
419.50	16558
419.75	16309
420.00	16267
420.25	16493
420.50	16574
420.75	16365
421.00	16477
421.25	16528
421.50	16493
421.75	16754
422.00	16941
422.25	16678
422.50	16800
422.75	16980
423.00	16724
423.25	16849
423.50	16983
423.75	17059
424.00	16892
424.25	16730
424.50	16853
424.75	16790
425.00	16844
425.25	16840
425.50	16827
425.75	16816
426.00	17004
426.25	16946
426.50	16720
426.75	16679
427.00	16714
427.25	16914
427.50	16551
427.75	16461
428.00	16580
428.25	16482
428.50	16497
428.75	16635
429.00	16303
429.25	16317
429.50	16162
429.75	16371
430.00	16144
430.25	16262
430.50	15928
430.75	15881
431.00	15741
431.25	15573
431.50	15862
431.75	15805
432.00	15688
432.25	15209
432.50	15542
432.75	15316
433.00	15147
433.25	15208
433.50	15043
433.75	14831
434.00	15164
434.25	14496
434.50	14477
434.75	14504
435.00	14240
435.25	14228
435.50	13930
435.75	14037
436.00	13841
436.25	13535
436.50	13391
436.75	13031
437.00	13271
437.25	12799
437.50	12940
437.75	12616
438.00	12645
438.25	12518
438.50	12591
438.75	12399
439.00	12249
439.25	12126
439.50	12086
439.75	11766
440.00	11785
440.25	11305
440.50	11341
440.75	11037
441.00	10871
441.25	10916
441.50	10860
441.75	10526
442.00	10189
442.25	10375
442.50	10196
442.75	10115
443.00	9623.1
443.25	9773.9
443.50	9825.9
443.75	9424.5
444.00	9478.5
444.25	9364.2
444.50	8951.3
444.75	9116.7
445.00	8876.5
445.25	8835.9
445.50	8508.3
445.75	8709.0
446.00	8302.4
446.25	8264.0
446.50	8258.8
446.75	8138.1
447.00	8014.4
447.25	7832.4
447.50	7581.8
447.75	7461.2
448.00	7476.8
448.25	7356.1
448.50	7136.7
448.75	7083.7
449.00	6748.9
449.25	6770.7
449.50	6594.9
449.75	6364.1
450.00	6514.9
450.25	6388.0
450.50	6269.5
450.75	6023.0
451.00	5968.9
451.25	5882.6
451.50	5859.7
451.75	5781.8
452.00	5743.3
452.25	5582.1
452.50	5606.0
452.75	5389.7
453.00	5277.4
453.25	5112.1
453.50	5036.2
453.75	4960.3
454.00	4925.9
454.25	4884.3
454.50	4962.3
454.75	4866.7
455.00	4826.1
455.25	4806.3
455.50	4653.5
455.75	4573.4
456.00	4419.5
456.25	4259.4
456.50	4209.5
456.75	4187.6
457.00	4077.4
457.25	4136.7
457.50	4029.6
457.75	3788.3
458.00	3851.7
458.25	3834.1
458.50	3792.5
458.75	3437.9
459.00	3585.5
459.25	3555.4
459.50	3412.9
459.75	3529.4
460.00	3373.4
460.25	3275.6
460.50	3343.2
460.75	3212.2
461.00	3436.8
461.25	2935.6
461.50	3204.9
461.75	3159.2
462.00	3005.3
462.25	3119.7
462.50	3064.5
462.75	3004.2
463.00	3013.6
463.25	2921.0
463.50	2974.1
463.75	2704.7
464.00	2947.0
464.25	2790.0
464.50	2833.7
464.75	2629.9
465.00	2602.8
465.25	2713.1
465.50	2559.2
465.75	2650.7
466.00	2730.7
466.25	2656.9
466.50	2608.0
466.75	2539.4
467.00	2443.7
467.25	2544.6
467.50	2470.8
467.75	2445.8
468.00	2587.2
468.25	2444.8
468.50	2664.2
468.75	2558.1
469.00	2554.0
469.25	2416.7
469.50	2394.9
469.75	2461.4
470.00	2534.2
470.25	2324.1
470.50	2573.7
470.75	2342.9
471.00	2440.6
471.25	2344.9
471.50	2328.3
471.75	2237.8
472.00	2283.6
472.25	2524.8
472.50	2318.9
472.75	2348.1
473.00	2183.8
473.25	2244.1
473.50	2226.4
473.75	1977.9
474.00	2227.4
474.25	2439.6
474.50	2224.3
474.75	2440.6
475.00	2326.2
475.25	2169.2
475.50	2332.5
475.75	2153.6
476.00	2257.6
476.25	2278.4
476.50	2540.4
476.75	2320.0
477.00	2673.5
477.25	2498.8
477.50	2278.4
477.75	2301.3
478.00	2409.4
478.25	2296.1
478.50	2255.5
478.75	2476.0
479.00	2595.6
479.25	2480.1
479.50	2462.4
479.75	2299.2
480.00	2473.9
480.25	2326.2
480.50	2490.5
480.75	2611.2
481.00	2560.2
481.25	2594.5
481.50	2792.1
481.75	2493.6
482.00	2580.0
482.25	2505.1
482.50	2522.8
482.75	2464.5
483.00	2540.4
483.25	2506.1
483.50	2622.6
483.75	2701.6
484.00	2723.5
484.25	2641.3
484.50	2757.8
484.75	2562.3
485.00	2711.0
485.25	2641.3
485.50	2611.2
485.75	2571.6
486.00	2580.0
486.25	2541.5
486.50	2706.8
486.75	2847.2
487.00	2753.6
487.25	2864.9
487.50	2764.0
487.75	2686.0
488.00	2727.6
488.25	2724.5
488.50	2730.7
488.75	2724.5
489.00	2800.4
489.25	2922.1
489.50	2888.8
489.75	2633.0
490.00	2766.1
490.25	2726.6
490.50	2812.9
490.75	3015.7
491.00	3001.1
491.25	2991.7
491.50	2931.4
491.75	2855.5
492.00	2961.6
492.25	2804.6
492.50	3021.9
492.75	3077.0
493.00	3004.2
493.25	3178.9
493.50	3323.5
493.75	3281.9
494.00	3088.5
494.25	3108.2
494.50	3195.6
494.75	3204.9
495.00	3185.2
495.25	3247.6
495.50	3370.3
495.75	3129.0
496.00	3463.9
496.25	3197.6
496.50	3137.3
496.75	3281.9
497.00	3296.4
497.25	3486.7
497.50	3477.4
497.75	3382.7
498.00	3581.4
498.25	3342.2
498.50	3519.0
498.75	3503.4
499.00	3741.5
499.25	3595.9
499.50	3500.3
499.75	3641.7
500.00	3621.9
500.25	3873.6
500.50	3707.2
500.75	3810.1
501.00	3809.1
501.25	3853.8
501.50	3781.0
501.75	3572.0
502.00	3929.7
502.25	3841.3
502.50	3936.0
502.75	4005.6
503.00	3930.8
503.25	4197.0
503.50	4050.4
503.75	3944.3
504.00	4075.3
504.25	4246.9
504.50	3955.7
504.75	4114.8
505.00	4008.8
505.25	4086.7
505.50	4107.5
505.75	3994.2
506.00	4171.0
506.25	4251.0
506.50	4549.5
506.75	4489.2
507.00	4445.5
507.25	4356.1
507.50	4606.7
507.75	4429.9
508.00	4594.2
508.25	4726.3
508.50	4444.5
508.75	4788.7
509.00	4785.5
509.25	4675.3
509.50	4721.1
509.75	4884.3
510.00	4736.7
510.25	4644.1
510.50	4761.6
510.75	5176.5
511.00	5047.6
511.25	5132.9
511.50	5132.9
511.75	5333.6
512.00	5199.4
512.25	5237.9
512.50	5248.3
512.75	5261.8
513.00	5250.4
513.25	5216.1
513.50	5559.2
513.75	5501.0
514.00	5329.4
514.25	5315.9
514.50	5333.6
514.75	5631.0
515.00	5773.4
515.25	5629.9
515.50	5590.4
515.75	5844.2
516.00	5911.7
516.25	5665.3
516.50	5826.5
516.75	5791.1
517.00	5933.6
517.25	6253.9
517.50	6315.2
517.75	6061.5
518.00	6336.0
518.25	6277.8
518.50	6331.9
518.75	6172.8
519.00	6447.3
519.25	6500.3
519.50	6451.4
519.75	6520.1
520.00	6600.1
520.25	6607.4
520.50	6630.3
520.75	6818.5
521.00	6763.4
521.25	7057.7
521.50	7028.6
521.75	6912.1
522.00	7061.9
522.25	7043.1
522.50	7081.6
522.75	7217.8
523.00	7207.4
523.25	7202.2
523.50	7291.7
523.75	7358.2
524.00	7543.3
524.25	7445.6
524.50	7409.2
524.75	7471.6
525.00	7503.8
525.25	7787.7
525.50	7696.2
525.75	7867.8
526.00	7753.4
526.25	7875.0
526.50	7880.2
526.75	8127.7
527.00	7975.9
527.25	8292.0
527.50	8111.1
527.75	8326.4
528.00	8327.4
528.25	8512.5
528.50	8631.0
528.75	8586.3
529.00	8395.0
529.25	8668.5
529.50	8671.6
529.75	8653.9
530.00	8933.6
530.25	9009.6
530.50	9140.6
530.75	9163.5
531.00	9263.3
531.25	9103.2
531.50	9325.7
531.75	9320.5
532.00	9493.1
532.25	9620.0
532.50	9635.6
532.75	9566.9
533.00	9763.5
533.25	9804.0
533.50	10126
533.75	10036
534.00	10197
534.25	10165
534.50	10075
534.75	10208
535.00	10407
535.25	10314
535.50	10474
535.75	10622
536.00	10714
536.25	10654
536.50	10737
536.75	10929
537.00	10857
537.25	11065
537.50	11080
537.75	11309
538.00	11395
538.25	11458
538.50	11499
538.75	11410
539.00	11567
539.25	11958
539.50	11898
539.75	12046
540.00	12275
540.25	12127
540.50	12468
540.75	12503
541.00	12611
541.25	12930
541.50	12599
541.75	12903
542.00	13074
542.25	13072
542.50	13154
542.75	13295
543.00	13314
543.25	13706
543.50	13526
543.75	13724
544.00	13758
544.25	14019
544.50	14044
544.75	14231
545.00	14214
545.25	14563
545.50	14733
545.75	14681
546.00	14616
546.25	15100
546.50	15275
546.75	15104
547.00	15511
547.25	15576
547.50	15555
547.75	15758
548.00	16014
548.25	16262
548.50	16024
548.75	16364
549.00	16408
549.25	16635
549.50	16616
549.75	16745
550.00	16977
550.25	17121
550.50	17312
550.75	17225
551.00	17789
551.25	17616
551.50	17871
551.75	18118
552.00	18084
552.25	18385
552.50	18502
552.75	18509
553.00	18639
553.25	19041
553.50	18991
553.75	19129
554.00	19231
554.25	19432
554.50	19845
554.75	20109
555.00	20359
555.25	20378
555.50	20556
555.75	20770
556.00	20693
556.25	21019
556.50	21215
556.75	21416
557.00	21666
557.25	21728
557.50	22101
557.75	22054
558.00	22321
558.25	22329
558.50	22666
558.75	22718
559.00	22816
559.25	22928
559.50	23081
559.75	23192
560.00	23482
560.25	23615
560.50	23774
560.75	23988
561.00	24240
561.25	24350
561.50	24419
561.75	24722
562.00	24719
562.25	25062
562.50	25117
562.75	25412
563.00	25462
563.25	25559
563.50	25932
563.75	25846
564.00	26191
564.25	26363
564.50	26356
564.75	26542
565.00	26752
565.25	27023
565.50	27053
565.75	27321
566.00	27606
566.25	27848
566.50	28025
566.75	28170
567.00	28187
567.25	28367
567.50	28434
567.75	28725
568.00	28586
568.25	28935
568.50	29100
568.75	29143
569.00	29506
569.25	29599
569.50	29684
569.75	29947
570.00	30169
570.25	30251
570.50	30723
570.75	30433
571.00	30791
571.25	31092
571.50	31096
571.75	31350
572.00	31569
572.25	31756
572.50	31969
572.75	32042
573.00	32344
573.25	32569
573.50	32514
573.75	32644
574.00	32840
574.25	32770
574.50	33153
574.75	33216
575.00	33249
575.25	33518
575.50	33504
575.75	34001
576.00	33917
576.25	34021
576.50	34543
576.75	34426
577.00	34658
577.25	34874
577.50	34945
577.75	35156
578.00	35369
578.25	35446
578.50	35630
578.75	35841
579.00	36150
579.25	36382
579.50	36372
579.75	36677
580.00	36755
580.25	36996
580.50	37135
580.75	37478
581.00	37362
581.25	37543
581.50	37807
581.75	38130
582.00	38319
582.25	38296
582.50	38660
582.75	39041
583.00	39066
583.25	39240
583.50	39470
583.75	39803
584.00	39796
584.25	40147
584.50	40288
584.75	40633
585.00	40718
585.25	40844
585.50	41216
585.75	41204
586.00	41856
586.25	42062
586.50	42140
586.75	42197
587.00	42559
587.25	42595
587.50	43070
587.75	43173
588.00	43478
588.25	43702
588.50	43935
588.75	44433
589.00	44574
589.25	45194
589.50	45228
